File: data/pca/normalized_data.nor
# XDI/1.0 Demeter/0.9.26
# Demeter.output_filetype: multicolumn normalized mu(E)
# Element.symbol: Ti
# Element.edge: K
# Column.1: energy eV
# Column.2: #2-1%-merge
# Column.3: #3-8%-merge
# Column.4: #4-19%-merge
# Column.5: #5-28%-merge
# Column.6: REF.published_on_AFM-38%-merge
# Column.7: #10-57%-merge
# Column.8: #6-65%-merge
# Column.9: #7-74%-merge
# Column.10: #9-84%-merge
# Column.11: #8-88%-merge
#------------------------
energy  #2-1%-merge  #3-8%-merge  #4-19%-merge  #5-28%-merge  REF.published_on_AFM-38%-merge  #10-57%-merge  #6-65%-merge  #7-74%-merge  #9-84%-merge  #8-88%-merge
  4899.99      -0.296176      -0.0247985  -0.0109047  -0.000656199   0.00145515   0.0012384   0.000856771   0.00120721   0.000951582   0.00184038
  4914       0.0108912  -0.000213353  -0.000457969   7.24928e-05  -4.3549e-05   8.08717e-05   0.000143041   3.37079e-05   0.000148593  -3.3614e-05
  4927.99       0.000481381  -0.00221058  -0.000567945  -0.000587564  -0.000775942  -0.000717257  -0.000681296  -0.00103506  -0.000500104  -0.00084262
  4941.99      -0.00280451   0.000777641   0.000245992   8.40682e-06  -5.31155e-05  -0.000251807   8.00424e-05  -0.000205335  -0.000113529  -2.30122e-05
  4952.99       0.00139732   0.00688117   0.00729669   0.00665536   0.00574187   0.00483422   0.00590759   0.00570602   0.00631696   0.00739762
  4956.5       0.0184611   0.031278   0.0327888   0.0276941   0.0277412   0.0242262   0.025338   0.0303313   0.0275318   0.0301821
  4960       0.23907       0.225047       0.247715       0.221558       0.236624       0.236038       0.237023       0.240541       0.240402       0.276493
  4963.49       0.141152       0.160603       0.170338       0.143611       0.160273       0.144134       0.144731       0.151131       0.148279       0.172455
  4967       0.266316       0.273173       0.295587       0.255778       0.259443       0.249399       0.248386       0.273854       0.251627       0.289873
  4970.5       0.544671       0.603426       0.633351       0.572529       0.593055       0.589195       0.585623       0.609538       0.58942       0.633846
  4974        1.07218        1.07506        1.04809        1.05608        1.02886       0.98393        1.0101       0.992708       0.97317       0.979694
  4977.51        1.09505        1.11841        1.11413        1.1361        1.12962        1.14771        1.17051        1.16422        1.15799        1.12692
  4980.99        1.11533        1.12309        1.11975        1.14533        1.09563        1.14066        1.15106        1.13158        1.13802        1.12173
  4984.5        1.17885        1.18699        1.1504        1.1785        1.12625        1.1321        1.13343        1.11927        1.11257        1.09163
  4988        1.18291        1.19101        1.15562        1.18925        1.17028        1.15219        1.15495        1.13962        1.13908        1.11296
  4991.5        1.17017        1.16224        1.14024        1.18391        1.15591        1.1556        1.15357        1.13982        1.13499        1.11079
  4995        1.11832        1.11393        1.09439        1.10671        1.10785        1.09802        1.10695        1.08696        1.08572        1.06903
  4998.5        1.06066        1.04891        1.04362        1.04289        1.04536        1.03563        1.0364        1.03928        1.02927        1.0223
  5001.99       0.985932       0.982923       0.98192       0.971542       0.971559       0.968642       0.971488       0.974578       0.967953       0.97586
  5005.51       0.943746       0.949233       0.949302       0.933516       0.935769       0.934315       0.933095       0.941841       0.93652       0.949207
  5009.01       0.936635       0.931568       0.938238       0.937114       0.928184       0.923741       0.934154       0.935774       0.930346       0.95001
  5012.51       0.905526       0.914125       0.918575       0.917141       0.911742       0.906119       0.913168       0.919772       0.914941       0.933356
  5015.99       0.912326       0.90902       0.916071       0.898697       0.909716       0.910356       0.913376       0.916843       0.91216       0.926946
  5019.5       0.906909       0.912925       0.919823       0.910755       0.919689       0.91869       0.915742       0.922221       0.920057       0.932969
  5026       0.923844       0.934811       0.942431       0.930878       0.938283       0.947719       0.947069       0.946746       0.951392       0.954617
  5033       0.954202       0.970361       0.975117       0.965498       0.974102       0.971303       0.980983       0.975961       0.983716       0.984825
  5040        1.00295       0.999209       0.999706        1.01356       0.994051        1.00025        1.00102       0.998911        1.00331       0.998464
  5047        1.03273        1.02847        1.02306        1.02601        1.019        1.02773        1.02079        1.02117        1.01732        1.01304
  5054        1.04811        1.03861        1.03524        1.04713        1.03352        1.03578        1.03673        1.03042        1.03207        1.02827
  5061.01        1.0414        1.03911        1.03213        1.03444        1.04192        1.03244        1.03728        1.0341        1.02675        1.02198
  5068        1.02392        1.01736        1.01518        1.01746        1.01975        1.02331        1.02023        1.01821        1.02312        1.01613
  5075        1.00721        1.00637        1.00503        1.00939        1.00813        1.00395       0.998876        1.00407        1.00923        1.00958
  5081.99       0.997403       0.994935       0.992746       0.99114       0.98637       0.991474       0.991832       0.993742       0.994725       0.998297
  5089.01       0.978576       0.984548       0.985298       0.984987       0.988588       0.986161       0.979928       0.993055       0.988074       0.985491
  5096.01       0.984808       0.9815       0.983624       0.991031       0.981581       0.986174       0.979943       0.979114       0.982823       0.981163
  5103       0.991034       0.982565       0.986824       0.975692       0.98865       0.992449       0.978299       0.985068       0.980573       0.981836
  5109.99       0.979877       0.983213       0.985987       0.977768       0.981399       0.993745       0.986214       0.988817       0.987336       0.99505
  5117       0.994348       0.987333       0.993402       0.987691       0.996142       0.9932       0.993161       0.996523        1.00003       0.996105
  5128        1.0007        1.0022        1.00138       0.999556       0.998727        1.00313        1.00058        1.00577        1.00806        1.00451
  5142        1.00975        1.01319        1.00818       0.990153        1.01044        1.00994        1.00997       0.999769        1.0052        1.00181
  5156.01        1.00886        1.01021        1.00687        1.00717        1.00114       0.998257        1.00303        1.00612        1.00216       0.998324
  5170       0.99928        1.00316        1.00211       0.994149        1.00079       0.995739        1.00016        1.00457       0.9963       0.999087
  5184        1.0167       0.99983       0.999746       0.992168       0.998231       0.995132        1.00661       0.995408       0.996623       0.996364
  5197.99        1.0045        1.00118       0.997769        1.00229        1.00015       0.995095        1.00139       0.996032       0.992904        1.00072
  5218.07       0.992171       0.995604       0.996604       0.990335       0.992878       0.998861       0.997666       0.998468       0.99235       0.997623
  5239.16       0.998049       0.998249        1.00068       0.996793        1.00034        1.00392        1.00131       0.996346       0.999187       0.997766
  5260.24       0.992017       0.99826        1.00169        1.00472        1.00607       0.997614        1.00483       0.998148        1.0071        1.00334
  5281.32        1.00598        1.00117        1.00329       0.997982        1.0061        1.01042       0.998409        1.00379        1.00807        1.00655
  5302.41       0.997642        1.00392        1.00316        1.00387        1.00244        1.00526       0.993501        1.00437       0.997043       0.999822
  5323.49        1.00945        1.00386        1.00085       0.978914        1.00381        1.00845       0.998601        1.00268       0.994587       0.999637
  5344.57       0.994669       0.9966        1.00094        1.00242       0.995617        1.0073        1.00104        1.0024       0.997109        1.00331
  5365.66        1.00767       0.99982       0.996455       0.992518        1.00322       0.999982       0.994305       0.999925       0.998892       0.992845
  5386.75        1.00956       0.998636       0.999024       0.997425       0.996296        1.00097       0.996215        1.00622        1.00529       0.999129
  5407.83        1.01278       0.997322       0.996971       0.996521       0.990182       0.996623       0.997685        1.00314        1.00135       0.99556
  5428.92       0.996603       0.996329       0.996265       0.988669       0.992528        1.00235        1.00037        1.00598        1.00141       0.989852
  5450        1.01682       0.995418       0.993459       0.996245       0.999533       0.995586       0.995171       0.99432       0.991227       0.995222